Time(sec)	Force(kgf)	LGauge(mm)	Strain	Stress(MPa)	Stroke(mm)	TC1(C)
0.00000	-122.57	-0.076217	-0.005137	-15.219	0.11416	35.039
1.00000	-122.56	-5.2999e-05	-8.0334e-07	-15.299	0.11569	35.097
2.00000	-122.58	-0.0002177	-1.1596e-05	-15.302	0.11534	35.072
3.00000	-122.34	-0.00027487	-1.6628e-05	-15.277	0.11561	35.028
4.00000	-122.49	-0.00034839	-2.1494e-05	-15.307	0.11562	34.977
5.00000	-122.7	-0.00047769	-3.151e-05	-15.318	0.1167	34.953
6.00000	-122.57	-0.0005457	-3.3991e-05	-15.304	0.11795	34.916
7.00000	-122.55	-0.00062842	-4.0804e-05	-15.299	0.11949	34.857
8.00000	-125.09	-0.00033964	-2.0823e-05	-15.621	0.12043	34.893
9.00000	-134.23	-0.00076143	-5.2081e-05	-16.767	0.12099	36.395
10.00000	-144.99	-0.00097005	-6.5505e-05	-18.102	0.12147	41.48
11.00000	-153.74	-0.00082097	-5.5688e-05	-19.198	0.1209	48.913
12.00000	-159.05	-0.0001594	-1.2783e-05	-19.861	0.12087	56.93
13.00000	-161.62	0.00053529	3.4065e-05	-20.187	0.12143	64.134
14.00000	-163.74	0.0010439	6.8847e-05	-20.448	0.1212	69.929
15.00000	-165.28	0.0015236	0.00010124	-20.636	0.12019	74.373
15.58840	-166.38	0.00208	0.00013655	-20.788	0.11983	76.606
16.58840	-168.8	0.0030848	0.00020632	-21.08	0.12156	80.617
17.58840	-169.99	0.0048517	0.00032319	-21.228	0.12074	85.212
18.58840	-170.88	0.006753	0.00044885	-21.342	0.11994	90.369
19.58840	-171.73	0.0086133	0.00057543	-21.463	0.12096	95.884
19.60830	-171.77	0.0086532	0.00057844	-21.468	0.12083	95.995
20.60830	-172.47	0.010551	0.00070586	-21.559	0.12015	101.39
21.60830	-173.33	0.012354	0.00082501	-21.663	0.12064	106.47
22.60830	-173.65	0.014245	0.00095038	-21.703	0.11978	111.27
23.60830	-174.28	0.01619	0.0010821	-21.785	0.11958	116.01
24.60830	-174.91	0.018392	0.0012294	-21.87	0.12041	120.91
25.60830	-175.39	0.020615	0.0013774	-21.933	0.12043	125.94
26.60830	-175.73	0.022755	0.0015185	-21.975	0.12008	131.02
27.60830	-176.08	0.024748	0.0016529	-22.017	0.11969	136.12
28.60830	-176.42	0.027006	0.001803	-22.072	0.12048	141.06
29.60830	-177.03	0.029376	0.0019599	-22.148	0.1195	146.08
30.60830	-177.53	0.031564	0.0021029	-22.217	0.11886	151.12
31.60830	-177.83	0.033825	0.0022543	-22.253	0.11964	155.99
32.60830	-177.84	0.036558	0.0024345	-22.263	0.11834	160.75
33.60830	-177.86	0.039164	0.0026061	-22.276	0.11823	165.73
34.60830	-178.19	0.041812	0.0027824	-22.309	0.11791	170.9
35.60830	-178.38	0.044483	0.0029593	-22.333	0.11817	176
36.60830	-178.38	0.047021	0.0031278	-22.342	0.11634	181.05
37.60830	-178.62	0.04969	0.0033052	-22.38	0.11694	186.03
38.60830	-178.58	0.052377	0.003485	-22.382	0.11622	190.97
39.60830	-178.87	0.055253	0.0036753	-22.414	0.11513	195.88
40.60830	-178.94	0.057808	0.0038458	-22.422	0.11492	200.92
41.60830	-178.93	0.060765	0.0040412	-22.427	0.11559	206.03
42.60830	-179.09	0.063607	0.0042319	-22.46	0.11792	211.13
43.60830	-179.39	0.066397	0.0044151	-22.499	0.1175	216.15
44.60830	-179.4	0.069216	0.0046027	-22.501	0.11594	221.07
45.60830	-179.25	0.072164	0.0047996	-22.49	0.11359	226.03
46.60830	-179.26	0.075158	0.0050005	-22.495	0.11407	231.01
47.60830	-179.47	0.07809	0.0051923	-22.532	0.11399	235.98
48.60830	-179.59	0.081191	0.0054007	-22.545	0.11481	240.98
49.60830	-179.52	0.084194	0.0056004	-22.541	0.1125	246.06
50.60830	-179.45	0.087262	0.0058037	-22.539	0.11036	251.04
51.60830	-179.7	0.090187	0.0059968	-22.58	0.11201	256.1
52.60830	-179.91	0.092966	0.0061815	-22.609	0.11342	261.16
53.60830	-180.01	0.096035	0.006384	-22.624	0.11209	266.19
54.60830	-179.87	0.099066	0.0065842	-22.609	0.11184	271.16
55.60830	-179.99	0.1021	0.0067846	-22.624	0.11162	276.06
56.51030	-180.08	0.10496	0.0069741	-22.65	0.11296	280.53
57.51030	-180.21	0.10815	0.0071861	-22.659	0.11165	285.56
58.51030	-180.26	0.11133	0.0073983	-22.664	0.11223	290.59
58.74870	-180.42	0.11209	0.0074475	-22.69	0.11215	291.79
59.74870	-180.45	0.1152	0.0076496	-22.701	0.11066	296.85
60.74870	-180.37	0.11838	0.007861	-22.702	0.11031	301.74
61.74870	-180.37	0.12152	0.0080687	-22.708	0.11065	306.77
62.74870	-180.54	0.1244	0.0082587	-22.733	0.11087	311.77
63.74870	-180.64	0.12745	0.0084603	-22.745	0.11096	316.77
64.74870	-180.69	0.13064	0.0086705	-22.756	0.11133	321.86
65.74870	-180.63	0.13385	0.0088817	-22.756	0.11176	326.9
66.74870	-180.81	0.13697	0.0090884	-22.791	0.11082	331.9
67.74870	-181.06	0.14003	0.0092929	-22.822	0.11143	336.92
68.74870	-181.15	0.14303	0.0094886	-22.83	0.11158	342.06
69.74870	-181.14	0.14584	0.0096741	-22.835	0.11169	347.3
70.74870	-181.26	0.14846	0.009849	-22.856	0.11113	352.37
71.74870	-181.4	0.15116	0.010031	-22.881	0.11164	357.24
72.74870	-181.49	0.1539	0.01021	-22.894	0.11159	361.97
73.74870	-181.41	0.15677	0.010397	-22.887	0.10841	366.67
74.74870	-181.42	0.15982	0.010601	-22.886	0.10926	371.53
75.74870	-181.41	0.16308	0.010818	-22.898	0.10974	376.54
76.74870	-181.51	0.16618	0.011021	-22.916	0.10946	381.61
77.74870	-181.8	0.16937	0.011231	-22.953	0.11082	386.74
78.74870	-181.78	0.17239	0.01143	-22.957	0.11184	391.79
79.74870	-181.8	0.17555	0.011639	-22.963	0.11149	396.81
80.74870	-181.87	0.17859	0.011837	-22.984	0.11144	401.83
81.74870	-182	0.18178	0.012048	-23.007	0.11116	406.84
82.74870	-182.19	0.18477	0.012244	-23.026	0.11021	411.77
83.74870	-182.15	0.1878	0.012444	-23.022	0.11023	416.66
84.74870	-182.16	0.19076	0.012639	-23.034	0.11162	421.59
85.74870	-182.42	0.19393	0.012847	-23.08	0.11163	426.48
86.74870	-182.57	0.19731	0.013067	-23.101	0.11021	431.45
87.74870	-182.57	0.20069	0.013291	-23.101	0.1105	436.67
88.74870	-182.61	0.20401	0.013507	-23.111	0.11054	441.79
89.74870	-182.55	0.2074	0.013731	-23.115	0.11108	446.92
90.74870	-182.84	0.21056	0.013938	-23.153	0.11134	451.99
91.74870	-182.97	0.21374	0.01415	-23.17	0.11052	456.85
92.74870	-183.02	0.21697	0.01436	-23.183	0.11154	461.87
93.74870	-183.01	0.22021	0.014574	-23.19	0.11166	466.8
94.74870	-183.15	0.22338	0.014782	-23.217	0.11134	471.73
95.74870	-183.35	0.22659	0.014994	-23.239	0.11123	476.68
96.74870	-183.41	0.22995	0.015215	-23.248	0.11163	481.65
97.47830	-183.36	0.23232	0.015373	-23.254	0.11144	485.37
98.47830	-183.49	0.23576	0.015599	-23.27	0.11166	490.36
98.50490	-183.52	0.23583	0.015603	-23.276	0.11177	490.5
99.50490	-183.55	0.23921	0.015825	-23.28	0.1117	495.51
100.50490	-183.55	0.24262	0.016049	-23.288	0.1117	500.58
101.50490	-183.65	0.24591	0.016265	-23.309	0.11236	505.61
102.50490	-183.83	0.24913	0.016473	-23.342	0.11318	510.65
103.50490	-184.02	0.25223	0.016675	-23.359	0.11296	515.6
104.50490	-184.01	0.25535	0.016882	-23.365	0.1141	520.51
105.50490	-184.01	0.25822	0.017071	-23.374	0.11394	525.49
106.50490	-184.18	0.26125	0.017269	-23.401	0.11391	530.37
107.50490	-184.33	0.26447	0.017478	-23.42	0.11354	535.26
108.50490	-184.36	0.26788	0.017702	-23.425	0.11443	540.22
109.50490	-184.18	0.27141	0.017935	-23.41	0.11514	545.26
110.50490	-184.41	0.27463	0.018146	-23.452	0.11518	550.39
111.50490	-184.58	0.27771	0.018347	-23.482	0.11586	555.39
112.50490	-184.7	0.28102	0.018563	-23.49	0.11571	560.41
113.50490	-184.63	0.28447	0.018785	-23.491	0.11504	565.44
114.50490	-184.8	0.28748	0.018982	-23.522	0.11515	570.6
115.50490	-185.09	0.29041	0.019174	-23.563	0.11482	575.68
116.50490	-185.14	0.29332	0.019364	-23.565	0.11516	580.68
117.50490	-185.12	0.2965	0.019574	-23.571	0.11676	585.61
118.50490	-185.21	0.29983	0.019795	-23.592	0.11631	590.54
119.50490	-185.47	0.30336	0.020022	-23.635	0.11459	595.54
120.50490	-185.67	0.30673	0.020242	-23.657	0.11456	600.5
121.50490	-185.79	0.30986	0.020447	-23.671	0.11402	605.73
122.50490	-185.84	0.31294	0.020649	-23.695	0.11459	610.82
123.50490	-186.04	0.31596	0.020846	-23.718	0.11453	615.94
124.50490	-186.12	0.31896	0.021044	-23.729	0.11411	620.95
125.50490	-186.19	0.32193	0.021239	-23.742	0.11439	625.9
126.50490	-186.19	0.32489	0.021432	-23.75	0.11497	630.73
127.50490	-186.56	0.32784	0.021623	-23.809	0.11417	635.58
128.50490	-186.7	0.33101	0.021827	-23.826	0.11536	640.43
129.50490	-186.71	0.334	0.022023	-23.832	0.11504	645.37
130.50490	-186.73	0.33724	0.022238	-23.838	0.1154	650.43
131.50490	-186.84	0.3404	0.022442	-23.86	0.11539	655.46
132.50490	-187.03	0.34353	0.022647	-23.887	0.1152	660.58
133.50490	-187.05	0.34657	0.022846	-23.887	0.11578	665.65
134.50490	-187.1	0.34981	0.023055	-23.903	0.1135	670.65
135.50490	-187.1	0.35283	0.023252	-23.916	0.11233	675.65
136.50490	-187.34	0.35583	0.023445	-23.951	0.11222	680.61
137.50490	-187.44	0.35864	0.023626	-23.96	0.11193	685.56
138.42380	-187.39	0.36115	0.023791	-23.959	0.11206	690.06
139.42380	-187.47	0.36397	0.023975	-23.979	0.11133	694.99
140.42380	-187.79	0.36684	0.024162	-24.019	0.11179	699.91
141.42380	-187.63	0.36982	0.024356	-24.006	0.11226	704.74
142.42380	-187.73	0.37276	0.024547	-24.021	0.11202	709.66
143.42380	-187.88	0.37551	0.024724	-24.051	0.11309	714.63
143.47080	-187.91	0.37566	0.024733	-24.057	0.11314	714.86
144.47080	-188.02	0.37852	0.024923	-24.07	0.11227	719.84
145.47080	-188.18	0.3806	0.025057	-24.093	0.11221	724.96
146.47080	-186.2	0.38108	0.025088	-23.839	0.11083	730.05
147.47080	-181.28	0.38106	0.025087	-23.215	0.11051	734.98
148.47080	-175.46	0.381	0.025086	-22.469	0.11034	739.53
149.47080	-169.1	0.38083	0.025072	-21.647	0.11109	743.05
150.47080	-164.88	0.38091	0.025078	-21.104	0.11089	744.62
151.47080	-163.25	0.38101	0.025088	-20.9	0.11079	744.17
152.47080	-162.87	0.38111	0.025096	-20.85	0.1102	744.36
153.47080	-184.6	0.38297	0.025216	-23.63	0.11128	748.25
154.47080	-187.87	0.39495	0.025994	-24.075	0.11211	767.58
155.47080	-176.59	0.39742	0.026154	-22.635	0.11251	796.84
156.47080	-150.28	0.38922	0.025622	-19.251	0.11317	807.78
157.47080	-144.99	0.37954	0.024989	-18.557	0.11293	807
158.47080	-142.99	0.37118	0.024447	-18.293	0.11229	801.37
159.47080	-144.41	0.36904	0.024305	-18.474	0.11047	796.67
160.47080	-135.07	0.37179	0.024485	-17.287	0.11045	797.12
161.47080	-96.838	0.37996	0.025015	-12.396	0.1107	800.95
162.47080	-96.335	0.38485	0.025333	-12.339	0.11054	806.67
163.47080	-96.913	0.38912	0.025611	-12.414	0.11102	813.07
164.47080	-97.208	0.39253	0.025833	-12.457	0.11062	819.31
165.47080	-97.621	0.39548	0.026025	-12.512	0.11108	824.98
166.47080	-97.954	0.39832	0.026208	-12.553	0.11232	830.2
167.47080	-97.85	0.40119	0.026395	-12.546	0.11207	835
168.47080	-97.845	0.40459	0.026616	-12.551	0.1112	839.84
169.47080	-98.048	0.40807	0.026843	-12.581	0.11049	844.72
170.47080	-98.022	0.41177	0.027082	-12.571	0.11073	849.68
171.47080	-97.772	0.41558	0.027329	-12.548	0.11122	854.82
172.47080	-97.818	0.41927	0.02757	-12.553	0.11063	859.95
173.47080	-97.894	0.42307	0.027816	-12.572	0.11075	865.07
174.47080	-97.994	0.42664	0.028046	-12.585	0.11091	870.12
175.47080	-97.986	0.43036	0.028287	-12.583	0.11126	875.11
176.47080	-97.899	0.43439	0.02855	-12.58	0.111	880.14
177.47080	-98.088	0.43843	0.028813	-12.606	0.11165	885.29
178.47080	-98.149	0.44245	0.029074	-12.617	0.11193	890.27
179.37700	-98.094	0.44607	0.029307	-12.611	0.1124	894.75
180.37700	-98.21	0.45018	0.029574	-12.627	0.11316	899.96
181.37700	-98.213	0.45402	0.029823	-12.632	0.11326	904.78
182.37700	-98.345	0.4579	0.030075	-12.652	0.11361	909.89
182.60850	-98.305	0.45877	0.03013	-12.648	0.11467	911.03
183.60850	-98.31	0.46284	0.030392	-12.655	0.11402	916.16
184.60850	-98.336	0.46695	0.030656	-12.658	0.11294	921.23
185.60850	-98.264	0.47073	0.030901	-12.655	0.11236	926.24
186.60850	-98.346	0.47451	0.031144	-12.672	0.11321	931.28
187.60850	-98.46	0.47829	0.03139	-12.688	0.11324	936.16
188.60850	-98.446	0.48236	0.03165	-12.686	0.11251	940.96
189.60850	-98.501	0.48641	0.031913	-12.691	0.11229	946.13
190.60850	-98.489	0.49026	0.032161	-12.699	0.1123	951.17
191.60850	-98.563	0.49381	0.03239	-12.718	0.11206	956.28
192.60850	-98.796	0.49722	0.032611	-12.742	0.11302	961.24
193.60850	-98.832	0.50078	0.03284	-12.752	0.11383	966.16
194.60850	-99.044	0.50434	0.033067	-12.779	0.11352	971.19
195.60850	-98.938	0.50781	0.033291	-12.779	0.11352	976.14
196.60850	-99.203	0.51121	0.033512	-12.813	0.11193	981.12
197.60850	-99.251	0.51458	0.03373	-12.821	0.11248	986.03
198.60850	-99.391	0.51771	0.033933	-12.839	0.1111	990.86
199.60850	-99.341	0.5211	0.034154	-12.834	0.11309	995.79
200.60850	-99.363	0.52467	0.03438	-12.846	0.11213	1000.9
201.60850	-99.508	0.52794	0.034592	-12.863	0.11263	1006
202.60850	-99.623	0.53097	0.034791	-12.878	0.11243	1011
203.60850	-99.733	0.53394	0.034982	-12.893	0.11248	1016
204.60850	-99.782	0.537	0.035176	-12.904	0.11367	1021
205.60850	-99.777	0.53999	0.035367	-12.912	0.11412	1026.1
206.60850	-99.879	0.5421	0.035507	-12.927	0.11432	1031.4
207.60850	-100.35	0.54363	0.035606	-12.979	0.11508	1036.4
208.60850	-100.27	0.54539	0.035717	-12.97	0.1149	1041.2
209.60850	-100.47	0.54702	0.035819	-13.003	0.11518	1046
210.60850	-100.45	0.54873	0.03593	-12.999	0.11312	1050.9
211.60850	-100.77	0.55022	0.036027	-13.048	0.11266	1055.8
212.60850	-101.04	0.55132	0.036098	-13.078	0.11365	1061
213.60850	-101.35	0.5516	0.036115	-13.114	0.11442	1065.8
214.60850	-101.67	0.5517	0.036123	-13.162	0.11378	1070.5
215.60850	-102.06	0.5519	0.036133	-13.215	0.11325	1075.5
216.60850	-101.78	0.55211	0.036145	-13.181	0.11209	1080.8
217.60850	-100.51	0.55218	0.03615	-13.009	0.11257	1085.9
218.60850	-99.116	0.55228	0.036155	-12.828	0.1119	1091
219.60850	-97.798	0.5523	0.036157	-12.663	0.11193	1096.3
220.41430	-96.755	0.55223	0.036153	-12.521	0.11249	1100.2
221.41430	-95.143	0.55225	0.036154	-12.314	0.11211	1105.3
221.73930	-94.531	0.55237	0.036161	-12.238	0.11211	1106.9
222.73930	-93.211	0.55241	0.036164	-12.063	0.11312	1111.7
223.73930	-91.77	0.55247	0.036172	-11.879	0.11315	1116.8
224.73930	-90.424	0.55246	0.036173	-11.705	0.11307	1121.7
225.73930	-89.42	0.55267	0.036184	-11.582	0.11346	1126.9
226.73930	-87.575	0.5528	0.036191	-11.337	0.11482	1132.1
227.73930	-85.893	0.5527	0.036186	-11.114	0.11371	1137
228.73930	-84.42	0.55265	0.036183	-10.933	0.11336	1142
229.73930	-83.41	0.55252	0.036174	-10.802	0.11241	1147
230.73930	-82.101	0.55236	0.036164	-10.626	0.11223	1151.9
231.73930	-80.892	0.5524	0.03617	-10.469	0.11089	1156.8
232.73930	-79.816	0.55235	0.036168	-10.336	0.112	1161.6
233.73930	-78.948	0.55256	0.036179	-10.224	0.11071	1166.7
234.73930	-78.086	0.55269	0.036186	-10.105	0.11182	1171.7
235.73930	-77.138	0.55251	0.036172	-9.9858	0.11212	1176.8
236.73930	-76.135	0.55235	0.036162	-9.8559	0.11212	1181.8
237.73930	-75.444	0.55226	0.036158	-9.7657	0.11302	1186.9
238.73930	-74.757	0.55232	0.036162	-9.6776	0.11246	1191.9
239.73930	-73.95	0.55238	0.036165	-9.5734	0.11264	1197
240.73930	-72.434	0.55179	0.036127	-9.3796	0.11338	1201.6
241.73930	-69.227	0.54994	0.036006	-8.9596	0.11467	1203.2
242.73930	-66.469	0.54858	0.035918	-8.604	0.11236	1203
243.73930	-64.301	0.54763	0.035857	-8.3208	0.11173	1202
244.73930	-63.148	0.54712	0.035824	-8.1749	0.11049	1201.3
245.73930	-62.665	0.54699	0.035817	-8.1153	0.11108	1201
246.73930	-63	0.54675	0.035801	-8.1538	0.10931	1200.7
247.73930	-62.336	0.5462	0.035765	-8.0634	0.11089	1200.7
248.73930	-62.613	0.54541	0.035718	-8.0986	0.10999	1200.5
249.73930	-62.492	0.5447	0.035671	-8.0904	0.1107	1200.3
250.73930	-62.458	0.54376	0.03561	-8.0801	0.11103	1200.2
251.73930	-62.239	0.54291	0.035555	-8.0499	0.11186	1200.2
252.73930	-62.16	0.54206	0.035502	-8.0431	0.11153	1200.2
253.73930	-61.977	0.54134	0.035454	-8.02	0.11213	1200.2
254.73930	-61.475	0.54077	0.035421	-7.9529	0.11316	1200.1
255.73930	-61.212	0.54005	0.035373	-7.9139	0.11158	1200.2
256.73930	-61.584	0.53943	0.035332	-7.9653	0.10976	1200.2
257.73930	-60.678	0.53899	0.035308	-7.8506	0.10951	1200.2
258.73930	-61.149	0.53809	0.035249	-7.9057	0.10926	1200.1
259.73930	-60.209	0.53803	0.035242	-7.7917	0.10948	1200.2
260.73930	-59.649	0.53767	0.035218	-7.7187	0.10954	1200.2
261.36620	-60.206	0.53715	0.035184	-7.7852	0.10996	1200.3
262.36620	-61.04	0.5364	0.035138	-7.8869	0.10987	1200.3
262.38950	-61.045	0.53639	0.035137	-7.8869	0.10987	1200.3
263.38950	-60.472	0.53636	0.035134	-7.8166	0.1095	1200.5
264.38950	-59.46	0.5361	0.035116	-7.6948	0.11104	1200.4
265.38950	-60.618	0.5354	0.035074	-7.8375	0.11066	1200.2
266.38950	-59.923	0.53551	0.035079	-7.7476	0.11165	1200.2
267.38950	-59.386	0.53553	0.035079	-7.6875	0.10986	1200.2
268.38950	-59.224	0.53547	0.035075	-7.6592	0.10851	1200.2
269.38950	-58.751	0.53567	0.03509	-7.5963	0.10935	1200.2
270.38950	-58.379	0.5357	0.035089	-7.5474	0.10885	1200.2
271.38950	-59.739	0.53505	0.035047	-7.7278	0.10889	1200.3
272.38950	-60.02	0.53459	0.03502	-7.762	0.10854	1200.3
273.38950	-59.289	0.53478	0.035031	-7.6678	0.10881	1200.3
274.38950	-59.594	0.53445	0.035012	-7.7056	0.10907	1200.3
275.38950	-59.97	0.53382	0.034972	-7.7616	0.10852	1200.3
276.38950	-59.269	0.53382	0.034972	-7.6659	0.10863	1200.2
277.38950	-58.745	0.53383	0.034968	-7.5954	0.1086	1200.3
278.38950	-59.959	0.53311	0.034926	-7.7549	0.1083	1200.2
279.38950	-59.489	0.5328	0.034907	-7.6954	0.11025	1200.3
280.38950	-59.255	0.53309	0.034925	-7.6668	0.10929	1200.2
281.38950	-58.71	0.533	0.034917	-7.5891	0.11	1200.3
282.38950	-58.11	0.53266	0.034897	-7.5143	0.10979	1200.3
283.38950	-59.765	0.53189	0.034853	-7.7284	0.11112	1200.1
284.38950	-59.701	0.53201	0.034856	-7.719	0.10993	1200.1
285.38950	-59.066	0.53172	0.034837	-7.6347	0.10981	1200.2
286.38950	-58.246	0.53156	0.034827	-7.5306	0.11066	1200.1
287.38950	-59.576	0.53121	0.034805	-7.7043	0.10894	1199.9
288.38950	-60.032	0.53096	0.034785	-7.7621	0.10933	1200
289.38950	-59.68	0.53071	0.03477	-7.7173	0.11045	1200.1
290.38950	-58.983	0.53063	0.034766	-7.6247	0.10996	1200.1
291.38950	-58.704	0.53074	0.034773	-7.5922	0.10909	1200
292.38950	-59.064	0.53078	0.034774	-7.6361	0.10627	1200.2
293.38950	-58.697	0.53054	0.034757	-7.5865	0.10547	1200.3
294.38950	-57.791	0.53061	0.034763	-7.4724	0.10647	1200.3
295.38950	-59.249	0.53011	0.03473	-7.6663	0.10537	1200.1
296.38950	-59.517	0.52974	0.034704	-7.6988	0.10655	1200
297.38950	-59.454	0.5297	0.034704	-7.6829	0.10665	1200.1
298.38950	-58.856	0.5298	0.03471	-7.6116	0.10648	1200.2
299.38950	-58.286	0.52968	0.034701	-7.539	0.10696	1200.2
300.38950	-58.068	0.52947	0.034689	-7.511	0.10823	1200.1
301.38950	-59.479	0.52914	0.034672	-7.6813	0.10872	1200.1
302.38950	-58.509	0.52916	0.03467	-7.5629	0.10695	1199.9
302.42030	-58.457	0.52916	0.034669	-7.5548	0.10692	1199.9
303.42030	-58.42	0.52893	0.034654	-7.5577	0.10641	1199.7
304.42030	-60.265	0.52835	0.03462	-7.7915	0.10644	1199.7
305.42030	-59.986	0.52842	0.034628	-7.7492	0.10593	1199.8
306.42030	-59.334	0.52866	0.034639	-7.6664	0.10486	1199.7
307.42030	-59.357	0.52867	0.034641	-7.6781	0.10634	1199.7
308.42030	-59.324	0.52854	0.034631	-7.6734	0.10683	1199.7
309.42030	-59.637	0.52848	0.034629	-7.7037	0.10617	1199.7
310.42030	-59.952	0.52855	0.034633	-7.7466	0.10497	1200
311.42030	-60.035	0.52864	0.034641	-7.7618	0.10599	1200.1
312.42030	-59.684	0.52874	0.034646	-7.715	0.10558	1200.2
313.42030	-59.439	0.52882	0.034651	-7.6776	0.10552	1200.1
314.42030	-59.265	0.52891	0.034654	-7.6578	0.10669	1200.1
315.42030	-58.944	0.52882	0.034647	-7.6217	0.10687	1200
316.42030	-58.975	0.52882	0.034647	-7.6295	0.10632	1199.9
317.42030	-59.706	0.52887	0.034651	-7.7163	0.10691	1199.9
318.42030	-59.306	0.52875	0.034642	-7.6608	0.10748	1200
319.42030	-59.368	0.52884	0.034647	-7.6759	0.10776	1200
320.42030	-59.176	0.52886	0.034649	-7.6548	0.10609	1200
321.42030	-59.509	0.52886	0.034649	-7.6966	0.10552	1200
322.42030	-59.578	0.52897	0.034656	-7.6995	0.10367	1200.1
323.42030	-59.816	0.52905	0.03466	-7.7334	0.10324	1200.2
324.42030	-60.105	0.52911	0.034665	-7.7728	0.10401	1200.5
325.42030	-59.188	0.52905	0.034662	-7.6492	0.10308	1200.4
326.42030	-58.482	0.52908	0.034665	-7.5606	0.10356	1200.1
327.42030	-58.974	0.52891	0.034654	-7.6215	0.1035	1200.1
328.42030	-59.569	0.52862	0.034633	-7.7046	0.1041	1200.1
329.42030	-59.396	0.52873	0.034643	-7.683	0.10414	1200.1
330.42030	-59.05	0.52875	0.034646	-7.636	0.10505	1200.2
331.42030	-58.728	0.52883	0.034651	-7.5884	0.10603	1200.1
332.42030	-58.617	0.52896	0.034658	-7.5765	0.10495	1200.1
333.42030	-58.535	0.52904	0.034664	-7.5666	0.10675	1200.1
334.42030	-58.653	0.52906	0.034667	-7.5805	0.10495	1200.2
335.42030	-58.49	0.52915	0.034671	-7.5633	0.10335	1200.3
336.42030	-57.984	0.5292	0.034673	-7.495	0.10332	1200.1
337.42030	-57.701	0.5292	0.034673	-7.4607	0.10262	1200.1
338.42030	-57.876	0.52929	0.03468	-7.4836	0.10337	1200
339.42030	-57.958	0.52928	0.034679	-7.493	0.10337	1200.1
340.42030	-59.391	0.5291	0.034666	-7.6753	0.10367	1199.9
341.42030	-59.786	0.52906	0.034664	-7.7262	0.10393	1200.1
342.42030	-59.595	0.52906	0.034666	-7.7049	0.10338	1200.1
343.35900	-59.412	0.52899	0.03466	-7.6812	0.10387	1200.1
344.35900	-59.394	0.52888	0.034653	-7.6775	0.10424	1200.1
345.35900	-59.283	0.52888	0.034652	-7.6573	0.10518	1200.1
345.59830	-59.36	0.5289	0.034653	-7.6694	0.10556	1200.1
346.59830	-59.455	0.52904	0.03466	-7.6824	0.10587	1200
347.59830	-59.187	0.52912	0.034664	-7.6563	0.10642	1200
348.59830	-59.136	0.52919	0.034668	-7.6486	0.10595	1200
349.59830	-59.423	0.52934	0.034678	-7.6841	0.10748	1200
350.59830	-59.366	0.52947	0.034689	-7.6707	0.10556	1200
351.59830	-59.344	0.52947	0.034689	-7.6726	0.10407	1200
352.59830	-59.368	0.52953	0.034694	-7.6744	0.10381	1200
353.59830	-58.906	0.5295	0.034693	-7.6228	0.10371	1200
354.59830	-58.978	0.5295	0.034694	-7.6254	0.10286	1199.9
355.59830	-58.975	0.52943	0.034691	-7.6259	0.1038	1200
356.59830	-59.306	0.52941	0.034691	-7.6661	0.1043	1200
357.59830	-59.501	0.52947	0.034694	-7.6957	0.10444	1199.9
358.59830	-59.694	0.52949	0.034692	-7.7202	0.106	1200
359.59830	-59.71	0.52952	0.034697	-7.716	0.10508	1200
360.59830	-59.696	0.52958	0.0347	-7.7124	0.10569	1200.1
361.59830	-59.35	0.52963	0.034702	-7.6754	0.10724	1199.9
362.59830	-59.369	0.52971	0.034705	-7.6777	0.10784	1200.1
363.59830	-59.437	0.5297	0.034706	-7.68	0.10857	1200
364.59830	-59.341	0.52972	0.034708	-7.6706	0.1073	1200
365.59830	-59.571	0.52977	0.034709	-7.6992	0.10631	1200
366.59830	-59.612	0.52979	0.03471	-7.7083	0.10658	1200
367.59830	-59.849	0.52991	0.034717	-7.7416	0.10612	1200
368.59830	-59.926	0.52992	0.034718	-7.7449	0.10561	1200
369.59830	-59.643	0.52983	0.034712	-7.7084	0.10497	1200
370.59830	-58.806	0.52985	0.034713	-7.6024	0.10575	1199.8
371.59830	-58.785	0.52977	0.034708	-7.602	0.1059	1199.5
372.59830	-59.719	0.52961	0.034697	-7.7233	0.10648	1199.5
373.59830	-60.352	0.52937	0.03468	-7.8014	0.10751	1199.7
374.59830	-60.313	0.52917	0.034666	-7.7973	0.10851	1200
375.59830	-60.24	0.52903	0.034658	-7.7883	0.10793	1200
376.59830	-60.207	0.52898	0.034656	-7.7859	0.10845	1200
377.59830	-60.031	0.52872	0.034642	-7.7575	0.10911	1200
378.59830	-59.924	0.52858	0.034632	-7.7426	0.10924	1200.1
379.59830	-60.128	0.52843	0.034624	-7.7723	0.10948	1200.2
380.59830	-59.635	0.52827	0.034617	-7.7134	0.10704	1200.3
381.59830	-59.56	0.52814	0.034609	-7.6933	0.10682	1200.3
382.59830	-59.025	0.52805	0.034602	-7.6237	0.10652	1200.2
383.59830	-58.946	0.52797	0.034597	-7.6183	0.10747	1200.2
384.32340	-59.275	0.52784	0.03459	-7.6636	0.1067	1200.2
385.32340	-60.421	0.52725	0.034553	-7.8066	0.10736	1200.2
385.34900	-60.41	0.52723	0.034552	-7.8035	0.1075	1200.2
386.34900	-59.933	0.5272	0.034548	-7.7425	0.10785	1200.1
387.34900	-59.75	0.52721	0.034549	-7.7245	0.10869	1200.1
388.34900	-59.688	0.52726	0.034551	-7.7184	0.10767	1200.1
389.34900	-59.783	0.52718	0.034547	-7.7285	0.10805	1200.1
390.34900	-59.26	0.52721	0.034547	-7.6589	0.10962	1200.1
391.34900	-59.07	0.52723	0.034547	-7.6379	0.11043	1200
392.34900	-59.511	0.52727	0.034548	-7.6907	0.1102	1200
393.34900	-59.916	0.52721	0.034545	-7.7478	0.11064	1200.1
394.34900	-60.089	0.5271	0.034536	-7.7636	0.10942	1200.2
395.34900	-59.673	0.52693	0.034525	-7.713	0.10824	1200.1
396.34900	-60.017	0.52686	0.034522	-7.7569	0.10814	1200.1
397.34900	-59.998	0.52686	0.034522	-7.7572	0.10712	1200.1
398.34900	-59.835	0.52695	0.034529	-7.7313	0.1074	1200.1
399.34900	-59.735	0.52713	0.034538	-7.7206	0.10748	1200
400.34900	-59.824	0.52698	0.034527	-7.7368	0.10793	1200
401.34900	-59.784	0.52689	0.034522	-7.7285	0.10777	1200
402.34900	-59.409	0.5268	0.034517	-7.6786	0.10824	1200
403.34900	-60.634	0.52613	0.034475	-7.8375	0.10891	1200.1
404.34900	-60.142	0.52567	0.034442	-7.7752	0.10919	1200
405.34900	-59.779	0.52545	0.034429	-7.731	0.10913	1200
406.34900	-59.897	0.52533	0.034426	-7.7389	0.11011	1200.1
407.34900	-61.223	0.52478	0.034391	-7.9072	0.10989	1200.1
408.34900	-60.568	0.5244	0.034363	-7.8304	0.11088	1200.1
409.34900	-60.323	0.52427	0.034358	-7.8001	0.11167	1200
410.34900	-59.933	0.52433	0.034363	-7.743	0.11165	1200
411.34900	-60.838	0.52394	0.034335	-7.8589	0.10814	1200
412.34900	-62.008	0.52321	0.034288	-8.0153	0.10801	1200.1
413.34900	-61.625	0.52307	0.03428	-7.9674	0.1069	1200
414.34900	-61.289	0.52317	0.034288	-7.9149	0.10626	1199.9
415.34900	-61.108	0.52311	0.034283	-7.8911	0.10702	1200
416.34900	-60.943	0.52296	0.034271	-7.8765	0.10767	1200
417.34900	-60.513	0.52265	0.034251	-7.8197	0.10695	1199.8
418.34900	-60.535	0.52257	0.034247	-7.8198	0.10814	1199.8
419.34900	-62.122	0.52217	0.034222	-8.0248	0.10831	1199.9
420.34900	-62.428	0.52167	0.034186	-8.0675	0.10789	1200
421.34900	-62.591	0.51721	0.033896	-8.0899	0.10859	1197.6
422.34900	-62.399	0.51124	0.033514	-8.0548	0.10931	1192.7
423.34900	-61.842	0.50632	0.033201	-7.9804	0.10903	1187
424.34900	-61.551	0.50184	0.032911	-7.9486	0.10757	1181.4
425.27010	-61.653	0.49781	0.032647	-7.9615	0.10622	1176.6
426.27010	-61.687	0.49341	0.032362	-7.9617	0.10842	1171.3
427.27010	-61.722	0.48893	0.032074	-7.9558	0.11001	1166.1
428.27010	-61.761	0.48454	0.031792	-7.9616	0.10912	1161
429.27010	-61.823	0.47998	0.031498	-7.9715	0.10954	1155.9
430.27010	-61.873	0.47585	0.031232	-7.9699	0.10901	1150.7
430.40800	-61.816	0.47532	0.031198	-7.9664	0.10906	1150
431.40800	-61.924	0.47117	0.030933	-7.9771	0.10985	1145
432.40800	-61.917	0.46705	0.030666	-7.97	0.10889	1139.9
433.40800	-62.01	0.46271	0.030381	-7.9857	0.10985	1134.9
434.40800	-62.225	0.4585	0.030109	-8.011	0.10945	1129.8
435.40800	-62.24	0.45407	0.029825	-8.0003	0.11006	1124.8
436.40800	-62.235	0.44977	0.02955	-7.9972	0.11002	1119.6
437.40800	-62.183	0.44571	0.029288	-7.9908	0.10914	1114.8
438.40800	-62.256	0.44149	0.029013	-8.0046	0.10861	1109.8
439.40800	-62.365	0.43738	0.028746	-8.0136	0.1087	1104.8
440.40800	-62.44	0.43323	0.028477	-8.0182	0.10766	1099.8
441.40800	-62.405	0.429	0.0282	-8.0148	0.10749	1094.8
442.40800	-62.511	0.42499	0.027938	-8.0291	0.10814	1089.8
443.40800	-62.611	0.42088	0.027672	-8.0368	0.10653	1084.9
444.40800	-62.629	0.41669	0.0274	-8.0351	0.10658	1079.9
445.40800	-62.563	0.41238	0.027119	-8.0226	0.10588	1075
446.40800	-62.554	0.40825	0.026853	-8.023	0.10641	1069.9
447.40800	-62.653	0.40405	0.026581	-8.0367	0.10595	1065.1
448.40800	-62.677	0.3998	0.026306	-8.0298	0.10608	1060.1
449.40800	-62.588	0.39556	0.026032	-8.0206	0.1053	1055
450.40800	-62.698	0.39155	0.02577	-8.0342	0.10656	1049.9
451.40800	-62.692	0.38756	0.025509	-8.0353	0.10652	1044.9
452.40800	-62.789	0.38368	0.025258	-8.043	0.10626	1039.9
453.40800	-62.541	0.37995	0.025013	-8.0047	0.10596	1034.9
454.40800	-62.587	0.37623	0.024772	-8.0156	0.10493	1029.9
455.40800	-62.642	0.37254	0.02453	-8.0239	0.10521	1024.9
456.40800	-62.836	0.36849	0.024268	-8.0407	0.10575	1019.9
457.40800	-62.762	0.36454	0.024014	-8.0251	0.10521	1014.9
458.40800	-62.795	0.36047	0.023753	-8.024	0.1049	1009.9
459.40800	-62.759	0.35686	0.023516	-8.0243	0.10513	1005
460.40800	-62.849	0.35295	0.02326	-8.0359	0.10512	999.87
461.40800	-62.825	0.34906	0.023006	-8.0238	0.10383	994.76
462.40800	-62.585	0.34541	0.02277	-7.9948	0.10526	989.82
463.40800	-62.627	0.3414	0.022507	-7.9989	0.1048	984.84
464.40800	-62.823	0.33746	0.022249	-8.0247	0.10563	979.83
465.40800	-62.763	0.33357	0.021995	-8.0105	0.1043	974.9
466.22730	-62.7	0.33036	0.021789	-7.9969	0.10443	970.85
467.22730	-62.728	0.32652	0.021538	-8.0032	0.10512	965.83
468.22730	-62.832	0.323	0.021307	-8.0071	0.10472	960.79
469.22730	-62.682	0.31926	0.021063	-7.9894	0.10573	955.85
469.45960	-62.753	0.31834	0.021004	-8.0078	0.10477	954.67
470.45960	-62.803	0.31448	0.020751	-8.0057	0.10479	949.69
471.45960	-62.654	0.31072	0.020502	-7.9822	0.10353	944.65
472.45960	-62.724	0.30689	0.020252	-7.9962	0.10397	939.66
473.45960	-62.783	0.30313	0.020005	-8.0005	0.10393	934.65
474.45960	-62.748	0.2994	0.019763	-7.9916	0.10441	929.65
475.45960	-62.613	0.29574	0.019524	-7.9761	0.10456	924.63
476.45960	-62.703	0.29212	0.019288	-7.9818	0.10401	919.68
477.45960	-62.675	0.28863	0.01906	-7.9781	0.10425	914.66
478.45960	-62.542	0.28503	0.018825	-7.9544	0.10378	909.68
479.45960	-62.565	0.28123	0.018575	-7.9579	0.10318	904.66
480.45960	-62.667	0.065029	0.0042941	-7.8569	0.073922	899.71
481.10000	-63.058	0.0009268	6.0087e-05	-7.8787	0.10026	897.45
481.60000	-64.996	0.00016442	9.6333e-06	-8.1187	0.066504	897.08
482.10000	-66.967	0.00043153	3.0482e-05	-8.3605	0.0099051	897.17
482.60000	-68.928	0.00075129	5.1209e-05	-8.6086	-0.050267	897.45
483.10000	-70.405	0.00075049	4.9984e-05	-8.7939	-0.11037	897.82
483.60000	-71.332	0.00077768	5.4474e-05	-8.9048	-0.17205	898.13
484.10000	-72.299	0.00084725	5.7498e-05	-9.03	-0.23176	898.44
484.60000	-73.197	0.00080947	5.2262e-05	-9.1408	-0.29249	898.8
485.10000	-73.897	0.00085026	5.529e-05	-9.2274	-0.35256	899.13
485.60000	-74.233	0.00073926	4.7374e-05	-9.2696	-0.41164	899.35
486.10000	-74.367	0.00072543	4.767e-05	-9.2825	-0.47267	899.47
486.60000	-74.394	0.00063741	4.5102e-05	-9.2901	-0.53184	899.7
487.10000	-74.38	0.00083998	6.1351e-05	-9.2808	-0.59213	899.6
487.60000	-74.35	0.00090863	6.3605e-05	-9.2811	-0.65338	899.64
488.10000	-74.382	0.00097041	7.078e-05	-9.2888	-0.71271	899.67
488.60000	-74.298	0.0010845	7.5604e-05	-9.2731	-0.77138	899.69
489.10000	-74.177	0.0010946	7.3325e-05	-9.2673	-0.83351	899.62
489.60000	-74.427	0.0011433	7.8783e-05	-9.2976	-0.89252	899.69
490.10000	-74.556	0.0012125	8.2936e-05	-9.3104	-0.9533	899.75
490.60000	-74.376	0.0011653	7.6818e-05	-9.2901	-1.013	899.92
491.10000	-74.164	0.0011474	7.7904e-05	-9.2624	-1.0736	899.88
491.60000	-74.167	0.0012075	8.0864e-05	-9.263	-1.132	899.75
492.10000	-82.483	0.0037092	0.00024768	-10.303	-1.1917	899.82
492.60000	-173.33	0.0051308	0.00034195	-21.646	-1.2504	900.25
493.10000	-252.9	-0.037465	-0.0025018	-31.493	-1.309	900.77
493.60000	-302.93	-0.08871	-0.0059317	-37.597	-1.3687	901.19
494.10000	-331.77	-0.13907	-0.0093124	-41.037	-1.4281	901.03
494.60000	-354.69	-0.19219	-0.012894	-43.721	-1.4885	900.92
495.10000	-378.15	-0.24443	-0.016428	-46.446	-1.548	900.87
495.60000	-401.21	-0.29844	-0.020094	-49.097	-1.6091	900.63
496.10000	-413.94	-0.3485	-0.023504	-50.479	-1.6674	900.34
496.60000	-432.8	-0.40116	-0.027108	-52.6	-1.7277	900.1
497.10000	-449.95	-0.45506	-0.030807	-54.484	-1.7883	900.1
497.60000	-465.15	-0.50922	-0.034539	-56.106	-1.8487	901.9
498.10000	-478.87	-0.56069	-0.038096	-57.56	-1.9069	900.77
498.60000	-498.61	-0.6139	-0.041789	-59.713	-1.9691	899.83
499.10000	-511.96	-0.66608	-0.045422	-61.083	-2.0277	899.41
499.60000	-526.05	-0.71841	-0.049082	-62.539	-2.0868	899.31
500.10000	-546.42	-0.77182	-0.052829	-64.716	-2.1471	899.11
500.60000	-554.57	-0.82264	-0.056409	-65.444	-2.206	899.39
501.10000	-564.01	-0.87602	-0.06018	-66.307	-2.2662	899.45
501.60000	-578.91	-0.92954	-0.063976	-67.808	-2.3268	899.58
502.10000	-593.67	-0.98286	-0.067775	-69.273	-2.3868	899.62
502.60000	-605.49	-1.0349	-0.071495	-70.386	-2.4456	899.62
503.10000	-614.49	-1.0869	-0.075222	-71.172	-2.5061	899.66
503.60000	-630.95	-1.1414	-0.079146	-72.789	-2.5659	899.59
504.10000	-641.32	-1.1953	-0.08305	-73.696	-2.6268	899.76
504.60000	-653.92	-1.2483	-0.086889	-74.858	-2.6863	899.73
505.10000	-658.9	-1.2996	-0.090622	-75.144	-2.7459	899.76
505.60000	-673.44	-1.3512	-0.094399	-76.514	-2.8046	899.64
506.10000	-683.21	-1.4048	-0.098331	-77.319	-2.8656	899.76
506.60000	-691.26	-1.4577	-0.10223	-77.925	-2.925	899.91
507.10000	-699.74	-1.5119	-0.10624	-78.565	-2.9868	899.74
507.60000	-711.54	-1.5636	-0.11008	-79.581	-3.0465	899.9
508.10000	-720.28	-1.6151	-0.11392	-80.256	-3.1048	899.72
508.60000	-732.34	-1.6712	-0.11812	-81.254	-3.1658	899.9
509.10000	-738.95	-1.7255	-0.1222	-81.646	-3.2265	899.78
509.60000	-743.83	-1.7769	-0.12608	-81.876	-3.2857	899.79
510.10000	-752.67	-1.8311	-0.13019	-82.507	-3.3458	899.71
510.60000	-760.6	-1.8845	-0.13425	-83.037	-3.4049	899.76
511.10000	-768.64	-1.9387	-0.13839	-83.571	-3.4653	899.95
511.60000	-778.4	-1.9925	-0.14252	-84.284	-3.5265	899.83
512.10000	-782.07	-2.0446	-0.14654	-84.34	-3.5856	899.82
512.60000	-785.04	-2.0989	-0.15073	-84.305	-3.6456	899.8
513.10000	-786.27	-2.1536	-0.15498	-84.083	-3.7062	899.83
513.60000	-797.02	-2.2081	-0.15923	-84.868	-3.7654	899.91
514.10000	-800.07	-2.2606	-0.16335	-84.84	-3.8261	899.94
514.60000	-805.2	-2.3153	-0.16765	-85.024	-3.8865	899.93
515.10000	-806.17	-2.3679	-0.1718	-84.773	-3.9449	899.88
515.60000	-812.43	-2.4218	-0.17608	-85.061	-4.0048	899.86
516.10000	-812.84	-2.4761	-0.18041	-84.743	-4.0656	899.81
516.60000	-806.99	-2.528	-0.18456	-83.782	-4.1243	899.85
517.10000	-815.87	-2.5827	-0.18896	-84.327	-4.1852	899.85
517.60000	-813.86	-2.637	-0.19335	-83.755	-4.2449	899.86
518.10000	-817.16	-2.6921	-0.19781	-83.722	-4.3058	899.89
518.60000	-819.52	-2.7441	-0.20204	-83.609	-4.3647	899.77
519.10000	-818.99	-2.7971	-0.20638	-83.192	-4.4234	899.85
519.60000	-819.48	-2.8527	-0.21094	-82.867	-4.4848	899.78
520.10000	-822.66	-2.9066	-0.21539	-82.814	-4.5441	899.92
520.60000	-827.51	-2.9617	-0.21996	-82.926	-4.6061	899.98
521.10000	-822.64	-3.0143	-0.22434	-82.079	-4.665	899.99
521.60000	-823.35	-3.0671	-0.22875	-81.784	-4.7233	899.97
522.10000	-823.11	-3.1212	-0.2333	-81.389	-4.7829	899.9
522.60000	-823.86	-3.1762	-0.23794	-81.088	-4.8432	899.94
523.10000	-822.77	-3.2291	-0.24243	-80.62	-4.9034	899.97
523.60000	-833.14	-3.2837	-0.24707	-81.252	-4.9628	899.95
524.10000	-832.74	-3.3406	-0.25194	-80.826	-5.0254	899.95
524.60000	-835.35	-3.3946	-0.25659	-80.702	-5.0849	899.9
525.10000	-835.06	-3.4468	-0.26109	-80.308	-5.1434	900.01
525.60000	-839.16	-3.5003	-0.26573	-80.325	-5.2041	899.97
526.10000	-840	-3.5546	-0.27046	-80.031	-5.2647	900.04
526.60000	-838.84	-3.6075	-0.2751	-79.551	-5.3233	899.8
527.10000	-843.15	-3.6637	-0.28004	-79.564	-5.3859	900.04
527.60000	-838.56	-3.7126	-0.28437	-78.791	-5.4421	900
528.10000	-843.96	-3.7675	-0.28924	-78.912	-5.5033	900.02
528.60000	-852.91	-3.8222	-0.29412	-79.357	-5.5639	900.01
529.10000	-853.6	-3.8763	-0.29898	-79.041	-5.6239	900.08
529.60000	-859.61	-3.9299	-0.30381	-79.21	-5.6848	900.02
530.10000	-862.75	-3.984	-0.30871	-79.115	-5.7456	899.99
530.60000	-866.03	-4.0361	-0.31344	-79.04	-5.8033	900
531.10000	-867.54	-4.0901	-0.31839	-78.785	-5.8634	900.18
531.60000	-875.04	-4.1445	-0.32338	-79.073	-5.9239	900.09
532.10000	-871.79	-4.1964	-0.32817	-78.403	-5.9838	900.09
532.60000	-879.78	-4.2493	-0.33308	-78.733	-6.0431	899.94
533.10000	-884.08	-4.3031	-0.3381	-78.72	-6.1034	900
533.60000	-891.52	-4.3592	-0.34335	-78.964	-6.1646	899.95
534.10000	-895.78	-4.4106	-0.34819	-78.962	-6.2229	899.93
534.60000	-898.78	-4.4635	-0.3532	-78.829	-6.2832	900.02
535.10000	-903.89	-4.5166	-0.35825	-78.873	-6.3428	900.03
535.60000	-910.43	-4.5694	-0.36331	-79.05	-6.4019	900.08
536.10000	-914.85	-4.625	-0.36865	-79.011	-6.4641	900.05
536.60000	-922.33	-4.6759	-0.37357	-79.265	-6.5231	899.91
537.10000	-924.19	-4.7282	-0.37866	-79.021	-6.5817	900.06
537.60000	-930.16	-4.7814	-0.38384	-79.118	-6.6408	900.04
538.10000	-933.51	-4.8346	-0.38906	-78.992	-6.7004	899.96
538.60000	-936.74	-4.8887	-0.3944	-78.847	-6.7621	900.03
539.10000	-943.55	-4.9409	-0.39957	-79.008	-6.8211	900.09
539.60000	-954.29	-4.9944	-0.4049	-79.481	-6.881	900.02
540.10000	-952.86	-5.0485	-0.41033	-78.933	-6.9406	900.03
540.60000	-972	-5.1025	-0.41577	-80.082	-7.0016	899.92
541.10000	-968.33	-5.1557	-0.42115	-79.352	-7.0626	899.82
541.60000	-972.89	-5.2061	-0.4263	-79.311	-7.1196	899.95
542.10000	-985.73	-5.2611	-0.43192	-79.913	-7.1809	900.06
542.60000	-993.91	-5.3141	-0.43738	-80.135	-7.2402	900.06
543.10000	-1002.3	-5.3683	-0.44299	-80.357	-7.302	899.97
543.60000	-1014.4	-5.4225	-0.44863	-80.869	-7.3623	899.94
544.10000	-1014.5	-5.4752	-0.45414	-80.44	-7.4197	900.01
544.60000	-1022.1	-5.5306	-0.45999	-80.566	-7.4819	899.95
545.10000	-1032.6	-5.5844	-0.46567	-80.931	-7.542	899.9
545.60000	-1036	-5.6344	-0.47101	-80.77	-7.5993	899.87
546.10000	-1049.5	-5.6892	-0.47687	-81.34	-7.6607	899.97
546.60000	-1055.1	-5.7433	-0.4827	-81.299	-7.7212	900.01
547.10000	-1072.8	-5.7964	-0.48845	-82.19	-7.7805	899.96
547.60000	-1080.5	-5.85	-0.49429	-82.296	-7.8407	900.1
548.10000	-1093.5	-5.9047	-0.5003	-82.785	-7.9024	900.04
548.60000	-1098	-5.9577	-0.50613	-82.649	-7.9593	900.08
549.10000	-1108.6	-6.0119	-0.51215	-82.944	-8.0197	900.01
549.60000	-1118.8	-6.0661	-0.5182	-83.206	-8.0793	900.04
550.10000	-1124	-6.119	-0.52413	-83.095	-8.1397	899.91
550.60000	-1140.7	-6.1727	-0.5302	-83.819	-8.1997	900.05
551.10000	-1151.7	-6.2254	-0.5362	-84.124	-8.2583	900.09
551.60000	-1165.5	-6.2804	-0.54248	-84.592	-8.3193	900.03
552.10000	-1166.4	-6.3318	-0.54839	-84.157	-8.3772	899.99
552.60000	-1185.9	-6.3858	-0.55464	-85.035	-8.4381	899.98
553.10000	-1203.1	-6.4399	-0.56094	-85.722	-8.4985	900.13
553.60000	-1212.8	-6.4942	-0.5673	-85.874	-8.5575	900.13
554.10000	-1221.9	-6.5486	-0.57372	-85.963	-8.6175	900.09
554.60000	-1233.6	-6.6003	-0.57985	-86.25	-8.6769	900.09
555.10000	-1249.6	-6.6543	-0.58631	-86.812	-8.7369	899.98
555.60000	-1265	-6.7079	-0.59276	-87.319	-8.7965	899.93
556.10000	-1276.3	-6.7619	-0.59928	-87.523	-8.8565	899.68
556.60000	-1292.7	-6.8145	-0.6057	-88.081	-8.917	899.68
557.10000	-1305.5	-6.8677	-0.61221	-88.379	-8.9768	899.77
557.60000	-1328.6	-6.9214	-0.61884	-89.349	-9.0373	899.8
558.10000	-1345	-6.974	-0.62537	-89.854	-9.0962	899.77
558.60000	-1360.9	-7.0279	-0.63211	-90.313	-9.1559	899.88
559.10000	-1380.7	-7.0801	-0.63867	-91.027	-9.2171	899.92
559.60000	-1398.8	-7.1337	-0.64547	-91.592	-9.2771	899.97
560.10000	-1412.7	-7.1869	-0.65225	-91.882	-9.3369	899.88
560.60000	-1425.1	-7.2391	-0.65896	-92.065	-9.3952	899.83
561.10000	-1444.1	-7.2904	-0.66559	-92.673	-9.4547	899.6
561.60000	-1458.8	-7.3417	-0.67226	-92.995	-9.5126	899.35
562.10000	-1487.6	-7.397	-0.67951	-94.145	-9.575	899.37
562.60000	-1501	-7.4484	-0.68629	-94.349	-9.6327	899.62
563.10000	-1533.5	-7.5044	-0.69373	-95.677	-9.6964	899.63
563.60000	-1544.3	-7.5552	-0.70052	-95.702	-9.7539	899.87
564.10000	-1563.4	-7.6091	-0.70779	-96.184	-9.8143	900.15
564.60000	-1580.8	-7.6611	-0.71486	-96.568	-9.8728	900.23
565.10000	-1604.1	-7.714	-0.72209	-97.284	-9.9329	899.88
565.60000	-1618.5	-7.767	-0.72939	-97.45	-9.9945	899.19
566.10000	-1640.2	-7.8174	-0.73639	-98.066	-10.051	898.38
566.60000	-1666.5	-7.8712	-0.7439	-98.894	-10.113	897.65
567.10000	-1681.6	-7.9239	-0.75133	-99.047	-10.172	896.86
567.60000	-1704.4	-7.9766	-0.7588	-99.646	-10.232	897.22
568.10000	-1712.6	-8.0286	-0.76623	-99.384	-10.293	898.13
568.60000	-1724.1	-8.0811	-0.7738	-99.296	-10.352	899.12
569.10000	-1728.3	-8.1347	-0.78158	-98.768	-10.412	899.83
569.60000	-1734.9	-8.1881	-0.78939	-98.374	-10.472	900.93
570.10000	-1742.5	-8.2398	-0.797	-98.057	-10.532	901.93
570.60000	-1760.7	-8.2928	-0.80488	-98.305	-10.592	901.29
571.10000	-1783.3	-8.3454	-0.81274	-98.778	-10.651	901.06
571.60000	-1802.2	-8.3983	-0.82072	-99.037	-10.711	901.43
572.10000	-1832.9	-8.4516	-0.82884	-99.909	-10.772	901.05
572.60000	-1847.7	-8.5017	-0.83651	-99.945	-10.83	900.9
573.10000	-1875.4	-8.5533	-0.84448	-100.64	-10.889	900.04
573.60000	-1917.3	-8.6061	-0.85271	-102.04	-10.948	899.29
574.10000	-1950.4	-8.6593	-0.86107	-102.94	-11.009	897.86
574.60000	-1979.9	-8.7103	-0.86915	-103.66	-11.069	893.7
575.10000	-2014.5	-8.7618	-0.87737	-104.61	-11.129	890.91
575.60000	-2036.6	-8.8136	-0.88569	-104.88	-11.188	889.19
576.10000	-2025.4	-8.8661	-0.89421	-103.42	-11.247	888.2
576.60000	-2028.5	-8.9205	-0.90313	-102.66	-11.308	883.59
577.10000	-1987.2	-8.9723	-0.91168	-99.711	-11.367	884.21
577.60000	-1936.2	-9.0285	-0.92106	-96.246	-11.429	888.41
578.10000	-1867.8	-9.085	-0.93057	-91.97	-11.489	896.04
578.60000	-1816.5	-9.1413	-0.94013	-88.593	-11.549	904.82
579.10000	-1750.2	-9.1963	-0.94956	-84.556	-11.609	912.41
579.60000	-1733.5	-9.2524	-0.95928	-82.94	-11.672	916.71
580.10000	-1743.8	-9.307	-0.96883	-82.635	-11.731	915.25
580.60000	-1761.8	-9.359	-0.978	-82.726	-11.79	915.48
581.10000	-1813.5	-9.4097	-0.98703	-84.389	-11.849	915.91
581.60000	-1895.3	-9.4606	-0.99616	-87.387	-11.91	915.79
582.10000	-1975.3	-9.5104	-1.0052	-90.262	-11.968	914.5
582.60000	-2067.3	-9.5603	-1.0143	-93.605	-12.027	912.62
583.10000	-2161.2	-9.6096	-1.0234	-96.972	-12.085	910.14
583.60000	-2270.2	-9.6599	-1.0328	-100.91	-12.145	906.73
584.10000	-2367.4	-9.71	-1.0423	-104.24	-12.204	902.72
584.60000	-2478.7	-9.7592	-1.0516	-108.13	-12.263	898.37
585.10000	-2610.1	-9.8067	-1.0607	-112.83	-12.32	894.4
585.25550	-2653.7	-9.8216	-1.0636	-114.39	-12.339	893.5
585.75550	-2451.4	-9.8475	-1.0686	-105.15	-12.358	851.81
586.25550	-2217.9	-9.8509	-1.0692	-95.064	-12.353	760.91
586.75550	-2029.9	-9.8512	-1.0693	-87	-12.346	700.42
587.25550	-1874	-9.851	-1.0692	-80.323	-12.34	648.95
587.75550	-1717.9	-9.8494	-1.0689	-73.656	-12.333	617.66
588.25550	-1564.2	-9.847	-1.0685	-67.095	-12.326	599.38
588.75550	-1428.4	-9.8459	-1.0683	-61.282	-12.319	587.05
589.25550	-1292.4	-9.8444	-1.068	-55.465	-12.311	578.68
589.75550	-1168.5	-9.8436	-1.0678	-50.157	-12.305	572.81
590.25550	-1042.1	-9.8424	-1.0676	-44.74	-12.298	567.81
590.75550	-919.52	-9.841	-1.0673	-39.488	-12.29	563.23
591.25550	-811.19	-9.8398	-1.0671	-34.844	-12.284	559.33
591.75550	-679.99	-9.836	-1.0663	-29.231	-12.274	555.63
592.25550	-578.53	-9.8337	-1.0659	-24.88	-12.267	551.96
592.75550	-490.09	-9.832	-1.0656	-21.083	-12.261	548.62
593.25550	-402.3	-9.8295	-1.0651	-17.317	-12.253	545.46
593.75550	-328.34	-9.8268	-1.0645	-14.139	-12.245	542.54
594.25550	-260.71	-9.824	-1.064	-11.233	-12.237	539.81
594.75550	-198	-9.8208	-1.0634	-8.5371	-12.228	536.92
595.25550	-156.38	-9.8197	-1.0632	-6.7452	-12.222	534.19
595.75550	-114.28	-9.8175	-1.0628	-4.9302	-12.213	531.54
596.25550	-89.857	-9.8177	-1.0628	-3.8759	-12.206	529.13
596.75550	-76.279	-9.8202	-1.0633	-3.2893	-12.198	526.67
597.25550	-69.692	-9.8224	-1.0637	-3.0042	-12.187	524.65
597.75550	-65.024	-9.8242	-1.064	-2.8008	-12.179	522.35
598.25550	-61.531	-9.8255	-1.0643	-2.6497	-12.169	519.94
598.75550	-58.849	-9.8267	-1.0645	-2.5341	-12.16	517.5
599.25550	-57.109	-9.8278	-1.0648	-2.4596	-12.152	514.98
599.75550	-56.225	-9.8288	-1.0649	-2.4199	-12.143	512.57
600.25550	-55.156	-9.8294	-1.0651	-2.3747	-12.132	510.05
600.75550	-54.183	-9.8302	-1.0652	-2.3333	-12.126	507.44
601.25550	-53.734	-9.8313	-1.0654	-2.3123	-12.116	505.24
601.75550	-53.235	-9.8321	-1.0656	-2.2903	-12.109	502.75
602.25550	-52.825	-9.8327	-1.0657	-2.2734	-12.099	500.37
602.75550	-52.606	-9.8334	-1.0658	-2.2623	-12.091	497.98
603.25550	-52.503	-9.834	-1.0659	-2.2594	-12.081	495.56
603.75550	-52.302	-9.8346	-1.0661	-2.2494	-12.072	493.4
604.25550	-52.305	-9.8351	-1.0662	-2.2476	-12.064	490.88
604.75550	-52.247	-9.8356	-1.0663	-2.2472	-12.057	488.56
605.25550	-52.442	-9.8361	-1.0664	-2.2543	-12.048	486.02
605.75550	-52.768	-9.8366	-1.0665	-2.2688	-12.038	483.72
606.25550	-52.917	-9.837	-1.0666	-2.2728	-12.029	481.42
606.75550	-53.048	-9.8374	-1.0666	-2.2794	-12.02	479.02
607.25550	-53.358	-9.8379	-1.0667	-2.2935	-12.013	476.68
607.75550	-53.436	-9.8383	-1.0668	-2.2962	-12.003	474.51
608.25550	-53.736	-9.8386	-1.0669	-2.3095	-11.993	472.41
608.75550	-53.671	-9.839	-1.0669	-2.306	-11.987	470.25
609.25550	-53.746	-9.8394	-1.067	-2.3083	-11.977	468.25
609.75550	-53.879	-9.8397	-1.0671	-2.3158	-11.968	466.22
610.25550	-53.883	-9.8401	-1.0671	-2.3155	-11.96	464.38
610.75550	-54.071	-9.8405	-1.0672	-2.3208	-11.95	462.67
611.25550	-54.193	-9.8408	-1.0673	-2.329	-11.942	460.91
611.75550	-54.163	-9.841	-1.0673	-2.3273	-11.933	459.36
612.25550	-54.435	-9.8414	-1.0674	-2.3366	-11.925	457.74
612.75550	-54.478	-9.8416	-1.0674	-2.3408	-11.916	456.16
613.25550	-54.62	-9.8419	-1.0675	-2.3451	-11.907	454.71
613.75550	-54.758	-9.8423	-1.0676	-2.3536	-11.899	453.21
614.25550	-54.823	-9.8426	-1.0676	-2.3531	-11.889	451.72
614.75550	-55.067	-9.8429	-1.0677	-2.3632	-11.882	450.11
615.25550	-55.23	-9.8431	-1.0677	-2.3716	-11.872	448.51
615.75550	-55.35	-9.8435	-1.0678	-2.3758	-11.863	446.78
616.25550	-55.553	-9.8437	-1.0678	-2.3855	-11.855	444.88
616.75550	-55.681	-9.8439	-1.0679	-2.3911	-11.846	443.21
617.25550	-55.762	-9.8442	-1.0679	-2.3929	-11.836	441.03
617.75550	-55.922	-9.8444	-1.068	-2.4017	-11.829	438.74
618.25550	-55.964	-9.8447	-1.068	-2.4018	-11.819	436.45
618.75550	-56.241	-9.8449	-1.0681	-2.4118	-11.812	433.96
619.25550	-56.303	-9.8452	-1.0681	-2.4182	-11.802	431.25
619.75550	-56.428	-9.8454	-1.0682	-2.4213	-11.793	428.42
620.25550	-56.486	-9.8457	-1.0682	-2.4239	-11.787	425.64
620.75550	-56.58	-9.8458	-1.0682	-2.4284	-11.777	422.48
621.25550	-56.714	-9.846	-1.0683	-2.4326	-11.769	419.32
621.75550	-56.899	-9.8463	-1.0683	-2.4445	-11.758	416.19
622.25550	-56.943	-9.8464	-1.0684	-2.442	-11.75	412.7
622.75550	-57.117	-9.8466	-1.0684	-2.4492	-11.742	409.37
623.25550	-57.09	-9.8469	-1.0684	-2.4503	-11.733	406.03
623.75550	-57.282	-9.8471	-1.0685	-2.4571	-11.725	402.58
624.25550	-57.577	-9.8473	-1.0685	-2.4706	-11.715	399.03
624.75550	-57.405	-9.8475	-1.0686	-2.4616	-11.706	395.62
625.25550	-57.78	-9.8476	-1.0686	-2.4771	-11.698	392.19
625.75550	-57.815	-9.8478	-1.0686	-2.4812	-11.689	388.72
626.25550	-57.841	-9.848	-1.0687	-2.482	-11.68	385.18
626.75550	-58.007	-9.8481	-1.0687	-2.4875	-11.672	381.95
627.25550	-57.942	-9.8483	-1.0687	-2.4858	-11.663	378.45
627.75550	-57.986	-9.8485	-1.0688	-2.4855	-11.654	375.01
628.25550	-58.194	-9.8485	-1.0688	-2.4956	-11.645	371.7
628.75550	-58.12	-9.8488	-1.0688	-2.4934	-11.637	368.46
629.25550	-58.477	-9.8488	-1.0688	-2.5063	-11.628	365.2
629.75550	-57.661	-9.8489	-1.0688	-2.4733	-11.62	362.31
630.25550	-56.683	-9.8487	-1.0688	-2.4292	-11.611	359.46
630.75550	-56.687	-9.8488	-1.0688	-2.4316	-11.602	356.49
631.25550	-56.404	-9.8487	-1.0688	-2.4189	-11.593	353.36
631.75550	-56.482	-9.8485	-1.0688	-2.4232	-11.584	350.38
632.25550	-56.431	-9.8484	-1.0688	-2.4219	-11.577	347.39
632.75550	-56.423	-9.8483	-1.0687	-2.4177	-11.567	344.56
633.25550	-56.631	-9.8483	-1.0687	-2.4283	-11.56	341.72
633.75550	-56.449	-9.8482	-1.0687	-2.4205	-11.55	338.79
634.25550	-56.485	-9.8482	-1.0687	-2.4219	-11.541	335.9
634.75550	-56.517	-9.8481	-1.0687	-2.4248	-11.532	333.02
635.25550	-56.489	-9.8481	-1.0687	-2.4226	-11.522	330.1
635.75550	-56.613	-9.8482	-1.0687	-2.4265	-11.514	327.28
636.25550	-56.542	-9.8481	-1.0687	-2.4253	-11.506	324.6
636.75550	-56.493	-9.8481	-1.0687	-2.4213	-11.496	321.77
637.25550	-56.496	-9.848	-1.0687	-2.4229	-11.488	319.01
637.75550	-56.4	-9.848	-1.0687	-2.4191	-11.479	316.34
638.25550	-56.485	-9.848	-1.0687	-2.4212	-11.471	313.75
638.75550	-56.442	-9.8481	-1.0687	-2.4218	-11.461	311.09
639.25550	-56.446	-9.848	-1.0687	-2.4205	-11.455	308.32
639.75550	-56.436	-9.8479	-1.0686	-2.4223	-11.445	305.71
640.25550	-56.277	-9.8479	-1.0686	-2.4147	-11.435	303.09
640.75550	-56.277	-9.8478	-1.0686	-2.4125	-11.427	300.42
641.25550	-56.342	-9.8477	-1.0686	-2.4181	-11.419	297.81
641.75550	-56.08	-9.8478	-1.0686	-2.4048	-11.41	295.36
642.25550	-56.262	-9.8477	-1.0686	-2.4123	-11.402	292.77
642.75550	-56.003	-9.8476	-1.0686	-2.4044	-11.393	290.51
643.25550	-56.145	-9.8475	-1.0686	-2.4069	-11.384	288.14
643.75550	-56.075	-9.8475	-1.0686	-2.4077	-11.374	285.76
644.25550	-55.848	-9.8475	-1.0686	-2.3969	-11.366	283.33
644.75550	-55.935	-9.8474	-1.0685	-2.3985	-11.356	280.98
645.25550	-55.8	-9.8473	-1.0685	-2.3943	-11.348	278.35
645.75550	-55.654	-9.8472	-1.0685	-2.3864	-11.339	275.73
646.25550	-55.78	-9.8472	-1.0685	-2.3928	-11.331	273.17
646.75550	-55.668	-9.847	-1.0685	-2.3899	-11.322	270.46
647.25550	-55.642	-9.847	-1.0685	-2.3857	-11.314	267.96
647.75550	-55.487	-9.8468	-1.0684	-2.3816	-11.305	265.52
648.25550	-55.295	-9.8467	-1.0684	-2.3706	-11.296	263.07
648.75550	-55.435	-9.8466	-1.0684	-2.3778	-11.286	260.71
649.25550	-55.219	-9.8465	-1.0684	-2.3691	-11.278	258.39
649.75550	-55.218	-9.8464	-1.0684	-2.3687	-11.27	256.06
650.25550	-55.175	-9.8464	-1.0684	-2.3679	-11.262	253.78
650.75550	-54.983	-9.8462	-1.0683	-2.3589	-11.254	251.57
651.25550	-55.114	-9.846	-1.0683	-2.3636	-11.243	249.28
651.75550	-54.994	-9.846	-1.0683	-2.3613	-11.235	247.07
652.25550	-54.846	-9.8458	-1.0682	-2.353	-11.227	244.79
652.75550	-54.919	-9.8457	-1.0682	-2.357	-11.219	242.58
653.25550	-54.612	-9.8456	-1.0682	-2.3431	-11.21	240.4
653.75550	-54.71	-9.8455	-1.0682	-2.3473	-11.201	238.22
654.25550	-54.597	-9.8454	-1.0682	-2.3444	-11.192	235.72
654.75550	-54.517	-9.8453	-1.0681	-2.3388	-11.183	232.9
655.25550	-54.547	-9.8452	-1.0681	-2.3416	-11.175	230.11
655.75550	-54.393	-9.845	-1.0681	-2.3356	-11.165	227.59
656.25550	-54.285	-9.845	-1.0681	-2.3287	-11.157	225.22
656.75550	-54.182	-9.8448	-1.068	-2.3271	-11.148	222.74
657.25550	-54.059	-9.8446	-1.068	-2.3209	-11.139	220.37
657.75550	-53.971	-9.8445	-1.068	-2.3163	-11.131	218.06
658.25550	-54.073	-9.8443	-1.068	-2.3205	-11.122	215.77
658.75550	-53.917	-9.8442	-1.0679	-2.3138	-11.114	213.41
659.25550	-53.913	-9.8441	-1.0679	-2.3145	-11.105	211.21
659.75550	-53.581	-9.844	-1.0679	-2.3012	-11.095	209.17
660.25550	-53.21	-9.8436	-1.0678	-2.2821	-11.087	206.89
660.75550	-52.088	-9.8431	-1.0677	-2.2372	-11.079	204.85
661.25550	-51.999	-9.843	-1.0677	-2.2311	-11.068	202.72
661.75550	-51.954	-9.8429	-1.0677	-2.2283	-11.06	200.66
662.25550	-51.8	-9.8428	-1.0677	-2.2234	-11.052	198.67
662.75550	-51.795	-9.8426	-1.0676	-2.2247	-11.043	196.63
663.25550	-51.833	-9.8425	-1.0676	-2.2243	-11.035	194.67
663.75550	-51.592	-9.8423	-1.0676	-2.2165	-11.027	192.74
664.25550	-51.757	-9.8423	-1.0676	-2.2187	-11.018	190.84
664.75550	-51.707	-9.8421	-1.0675	-2.2194	-11.008	188.89
665.25550	-51.37	-9.8421	-1.0675	-2.2033	-11	186.98
665.75550	-51.421	-9.8419	-1.0675	-2.2071	-10.992	185.1
666.25550	-51.325	-9.8418	-1.0675	-2.2035	-10.983	183.33
666.75550	-51.295	-9.8417	-1.0674	-2.201	-10.973	181.47
667.25550	-51.227	-9.8415	-1.0674	-2.2005	-10.965	179.62
667.75550	-51.036	-9.8414	-1.0674	-2.1923	-10.956	177.73
668.25550	-51.112	-9.8413	-1.0674	-2.1931	-10.948	175.95
668.75550	-50.969	-9.8412	-1.0673	-2.1897	-10.94	174.23
669.25550	-50.774	-9.8411	-1.0673	-2.1784	-10.929	172.49
669.75550	-50.901	-9.8411	-1.0673	-2.1845	-10.921	170.87
670.25550	-50.561	-9.8409	-1.0673	-2.1737	-10.914	169.22
670.75550	-50.553	-9.8407	-1.0672	-2.1686	-10.903	167.58
671.25550	-50.569	-9.8406	-1.0672	-2.1727	-10.894	165.99
671.75550	-50.264	-9.8405	-1.0672	-2.1598	-10.886	164.43
672.25550	-50.244	-9.8404	-1.0672	-2.1593	-10.878	162.87
672.75550	-50.154	-9.8402	-1.0672	-2.1554	-10.87	161.41
673.25550	-50.077	-9.8401	-1.0671	-2.1498	-10.859	159.75
673.75550	-50.082	-9.84	-1.0671	-2.1508	-10.852	158.33
674.25550	-49.732	-9.8399	-1.0671	-2.1364	-10.842	156.94
674.75550	-49.652	-9.8399	-1.0671	-2.1323	-10.835	155.54
675.25550	-49.561	-9.8397	-1.0671	-2.1323	-10.826	153.96
675.75550	-49.444	-9.8395	-1.067	-2.1258	-10.818	152.56
676.25550	-49.506	-9.8395	-1.067	-2.1275	-10.808	151.04
676.75550	-49.253	-9.8393	-1.067	-2.1194	-10.8	149.74
677.25550	-49.242	-9.8392	-1.067	-2.1147	-10.792	148.29
677.75550	-49.236	-9.8391	-1.0669	-2.1152	-10.783	146.91
678.25550	-49.01	-9.839	-1.0669	-2.1049	-10.775	145.62
678.75550	-49.018	-9.8389	-1.0669	-2.1063	-10.767	144.32
679.25550	-48.817	-9.8388	-1.0669	-2.0998	-10.757	143
679.75550	-48.706	-9.8387	-1.0669	-2.0911	-10.75	141.72
680.25550	-48.524	-9.8386	-1.0669	-2.0865	-10.741	140.47
680.75550	-48.415	-9.8385	-1.0668	-2.0817	-10.731	139.29
681.25550	-48.342	-9.8384	-1.0668	-2.0746	-10.722	138.05
681.75550	-48.159	-9.8383	-1.0668	-2.0711	-10.713	136.83
682.25550	-47.938	-9.8382	-1.0668	-2.0604	-10.706	135.63
682.75550	-48	-9.8381	-1.0668	-2.0614	-10.694	134.5
683.25550	-47.773	-9.838	-1.0667	-2.0536	-10.688	133.32
683.75550	-47.77	-9.838	-1.0667	-2.0505	-10.678	132.25
684.25550	-47.71	-9.8378	-1.0667	-2.0507	-10.67	130.96
684.75550	-47.378	-9.8376	-1.0667	-2.0359	-10.661	129.97
685.25550	-47.509	-9.8376	-1.0666	-2.0402	-10.652	128.98
685.75550	-47.194	-9.8374	-1.0666	-2.0288	-10.644	127.84
686.25550	-47.066	-9.8373	-1.0666	-2.0223	-10.634	126.85
686.75550	-46.891	-9.8372	-1.0666	-2.0166	-10.626	125.77
687.25550	-46.721	-9.8372	-1.0666	-2.0076	-10.617	124.63
687.75550	-46.785	-9.837	-1.0665	-2.0103	-10.609	123.61
688.25550	-46.516	-9.8369	-1.0665	-2.0006	-10.601	122.57
688.75550	-46.47	-9.8367	-1.0665	-1.9965	-10.592	121.6
689.25550	-46.265	-9.8367	-1.0665	-1.9893	-10.585	120.53
689.75550	-46.032	-9.8365	-1.0664	-1.9805	-10.572	119.57
690.25550	-45.955	-9.8364	-1.0664	-1.9736	-10.564	118.63
690.75550	-45.818	-9.8363	-1.0664	-1.9704	-10.556	117.71
691.25550	-45.531	-9.8361	-1.0664	-1.9566	-10.546	116.76
691.75550	-45.519	-9.8361	-1.0664	-1.9558	-10.539	115.86
692.25550	-45.24	-9.8359	-1.0663	-1.9442	-10.531	114.89
692.75550	-45.217	-9.8358	-1.0663	-1.9447	-10.521	114.03
693.25550	-44.978	-9.8357	-1.0663	-1.9369	-10.512	113.09
693.75550	-44.775	-9.8356	-1.0663	-1.9255	-10.504	112.13
694.25550	-44.861	-9.8355	-1.0662	-1.9277	-10.496	111.44
694.75550	-44.458	-9.8353	-1.0662	-1.9134	-10.488	110.51
695.25550	-44.539	-9.8352	-1.0662	-1.9146	-10.478	109.72
695.75550	-44.288	-9.8351	-1.0662	-1.9052	-10.469	108.77
696.25550	-43.939	-9.835	-1.0661	-1.888	-10.461	107.93
696.75550	-44.014	-9.8349	-1.0661	-1.8903	-10.451	107.06
697.25550	-43.699	-9.8347	-1.0661	-1.8801	-10.445	106.32
697.75550	-43.643	-9.8347	-1.0661	-1.8766	-10.435	105.53
698.25550	-43.488	-9.8345	-1.0661	-1.871	-10.425	104.71
698.75550	-43.213	-9.8343	-1.066	-1.8575	-10.416	103.96
699.25550	-43.192	-9.8343	-1.066	-1.8582	-10.407	103.23
699.75550	-42.901	-9.8342	-1.066	-1.8451	-10.4	102.46
700.25550	-42.873	-9.8341	-1.066	-1.8425	-10.391	101.75
700.75550	-42.611	-9.8339	-1.0659	-1.8346	-10.382	101
701.25550	-42.341	-9.8338	-1.0659	-1.8207	-10.372	100.26
701.75550	-42.466	-9.8336	-1.0659	-1.8251	-10.364	99.537
702.25550	-42.205	-9.8336	-1.0659	-1.8155	-10.354	98.76
702.75550	-42.003	-9.8334	-1.0658	-1.8075	-10.346	98.172
703.25550	-41.846	-9.8334	-1.0658	-1.801	-10.337	97.395
703.75550	-41.509	-9.8332	-1.0658	-1.7847	-10.329	96.808
704.25550	-41.694	-9.8332	-1.0658	-1.7919	-10.32	95.982
704.75550	-41.338	-9.833	-1.0658	-1.7782	-10.312	95.338
705.25550	-41.215	-9.8329	-1.0657	-1.772	-10.302	94.569
705.75550	-41.184	-9.8328	-1.0657	-1.7726	-10.294	94.015
706.25550	-40.864	-9.8326	-1.0657	-1.7579	-10.285	93.302
706.75550	-40.859	-9.8326	-1.0657	-1.7564	-10.276	92.644
707.25550	-40.542	-9.8324	-1.0657	-1.746	-10.268	92.005
707.75550	-40.433	-9.8324	-1.0656	-1.7392	-10.257	91.431
708.25550	-40.461	-9.8322	-1.0656	-1.741	-10.251	90.905
708.75550	-40.042	-9.8322	-1.0656	-1.726	-10.241	90.228
709.25550	-40.048	-9.8321	-1.0656	-1.7219	-10.233	89.647
709.75550	-39.85	-9.832	-1.0656	-1.7154	-10.224	89.048
710.25550	-39.554	-9.8319	-1.0656	-1.7018	-10.214	88.477
710.75550	-39.484	-9.8318	-1.0655	-1.6992	-10.207	87.933
711.25550	-39.247	-9.8317	-1.0655	-1.6903	-10.198	87.366
711.75550	-39.199	-9.8316	-1.0655	-1.6863	-10.189	86.751
712.25550	-39.03	-9.8315	-1.0655	-1.6822	-10.181	86.239
712.75550	-38.813	-9.8314	-1.0654	-1.6703	-10.174	85.646
713.25550	-38.729	-9.8313	-1.0654	-1.6649	-10.163	85.203
713.75550	-38.474	-9.8312	-1.0654	-1.6558	-10.154	84.622
714.25550	-38.432	-9.8311	-1.0654	-1.6522	-10.146	84.127
714.75550	-38.281	-9.8309	-1.0654	-1.6486	-10.137	83.645
715.25550	-38.051	-9.8308	-1.0653	-1.6368	-10.128	83.092
715.75550	-37.966	-9.8307	-1.0653	-1.6334	-10.119	82.613
716.25550	-37.743	-9.8306	-1.0653	-1.6262	-10.111	82.168
716.75550	-37.607	-9.8306	-1.0653	-1.6174	-10.102	81.537
717.25550	-37.533	-9.8304	-1.0653	-1.6151	-10.093	81.211
717.75550	-37.238	-9.8303	-1.0652	-1.6023	-10.085	80.687
718.25550	-37.189	-9.8303	-1.0652	-1.5994	-10.076	80.178
718.75550	-37.008	-9.8302	-1.0652	-1.5935	-10.067	79.57
719.25550	-36.878	-9.83	-1.0652	-1.5855	-10.058	79.098
719.75550	-36.952	-9.8299	-1.0652	-1.5898	-10.05	78.619
720.25550	-36.714	-9.8299	-1.0652	-1.5811	-10.04	78.206
720.75550	-36.822	-9.83	-1.0652	-1.5829	-10.031	77.739
721.25550	-36.806	-9.83	-1.0652	-1.5848	-10.023	77.33
721.75550	-36.725	-9.8301	-1.0652	-1.579	-10.014	76.884
722.25550	-36.794	-9.8301	-1.0652	-1.583	-10.006	76.448
722.75550	-36.744	-9.8302	-1.0652	-1.5817	-9.9959	76.036
723.25550	-36.516	-9.8303	-1.0652	-1.5718	-9.989	75.601
723.75550	-36.598	-9.8304	-1.0652	-1.575	-9.9792	75.194
724.25550	-36.474	-9.8304	-1.0653	-1.5726	-9.9704	74.764
724.75550	-36.399	-9.8304	-1.0653	-1.5662	-9.9622	74.362
725.25550	-36.34	-9.8305	-1.0653	-1.5663	-9.9526	73.955
725.75550	-36.104	-9.8306	-1.0653	-1.5541	-9.9438	73.556
726.25550	-36.169	-9.8306	-1.0653	-1.556	-9.935	73.135
726.75550	-35.929	-9.8307	-1.0653	-1.5476	-9.9258	72.767
727.25550	-35.734	-9.8307	-1.0653	-1.5385	-9.9176	72.412
727.75550	-35.738	-9.8307	-1.0653	-1.538	-9.9076	72.047
728.25550	-35.62	-9.8306	-1.0653	-1.5338	-9.8989	71.479
728.75550	-35.425	-9.8306	-1.0653	-1.5223	-9.8903	71.168
729.25550	-35.446	-9.8307	-1.0653	-1.5262	-9.8809	70.864
729.75550	-35.148	-9.8307	-1.0653	-1.5149	-9.8744	70.458
730.25550	-34.911	-9.8306	-1.0653	-1.5016	-9.8646	69.987
730.75550	-35.133	-9.8306	-1.0653	-1.5131	-9.8556	69.579
731.25550	-34.812	-9.8306	-1.0653	-1.4984	-9.8485	69.262
731.75550	-34.79	-9.8305	-1.0653	-1.4959	-9.8383	68.966
732.25550	-34.454	-9.8306	-1.0653	-1.4846	-9.8287	68.543
732.75550	-34.234	-9.8304	-1.0653	-1.4726	-9.8202	68.151
733.25550	-34.193	-9.8304	-1.0653	-1.4717	-9.8129	67.838
733.75550	-34.084	-9.8304	-1.0653	-1.4671	-9.802	67.535
734.25550	-33.938	-9.8304	-1.0653	-1.4599	-9.7937	67.215
734.75550	-33.96	-9.8303	-1.0653	-1.4612	-9.7868	66.931
735.25550	-33.705	-9.8303	-1.0652	-1.4518	-9.7755	66.547
735.75550	-33.596	-9.8302	-1.0652	-1.4451	-9.7667	66.192
736.25550	-33.471	-9.8302	-1.0652	-1.4414	-9.7584	66.003
736.75550	-33.304	-9.8302	-1.0652	-1.4325	-9.7492	65.679
737.25550	-33.428	-9.8302	-1.0652	-1.4387	-9.7413	65.358
737.75550	-33.144	-9.8302	-1.0652	-1.4282	-9.7312	65.035
738.25550	-33.002	-9.8301	-1.0652	-1.4196	-9.723	64.763
738.75550	-33.09	-9.83	-1.0652	-1.4249	-9.7156	64.492
739.25550	-32.763	-9.83	-1.0652	-1.4108	-9.7062	64.18
739.75550	-32.768	-9.8299	-1.0652	-1.4108	-9.6967	63.961
740.25550	-32.573	-9.8299	-1.0652	-1.4024	-9.6903	63.649
740.75550	-32.401	-9.8298	-1.0651	-1.3967	-9.6796	63.321
741.25550	-32.336	-9.8297	-1.0651	-1.3898	-9.67	63.066
741.75550	-32.224	-9.8297	-1.0651	-1.3896	-9.6615	62.678
742.25550	-32.069	-9.8295	-1.0651	-1.3806	-9.6546	62.411
742.75550	-32.106	-9.8295	-1.0651	-1.3809	-9.6449	62.086
743.25550	-31.847	-9.8294	-1.0651	-1.3716	-9.635	61.82
743.75550	-31.709	-9.8294	-1.065	-1.3647	-9.6258	61.57
744.25550	-31.605	-9.8294	-1.0651	-1.3622	-9.6179	61.283
744.75550	-31.307	-9.8294	-1.0651	-1.3487	-9.6098	61.022
745.25550	-31.323	-9.8293	-1.065	-1.3475	-9.5993	60.722
